#
# GMRT spectrum obtained on 10May99 on A0235+164
#
# Total Bandwidth is 1.0 MHz 128 Channels
# First channel is at 931.525 MHz (1st LO 860 MHz BB LO 71.525 MHz)
# Flux and bandpass calibration done using 3C147. A0235+164 is
# a VLA calibrator - no phase calibrator observations were necessary.
# A0235+164 flux measured to be 1.04 +- 0.03 Jy.
#
# Frequency increases with channel number Spectrum obtained from the
# peak pixel (32,33) of the DIRTY continuum  subtracted (UVLIN on 
# channels 15-40 55-62,95-120) HANNING smoothed cube.
# Total on source time approximately 40 minutes.
# 
# NOTE: Doppler tracking has NOT been carried out. The spectrum is in the topocentric frame.
#
1    931.5250000      0.0000000 
2    931.5328125      0.0000000 
3    931.5406250     -0.0085496 
4    931.5484375      0.0115020 
5    931.5562500      0.0142940 
6    931.5640625      0.0037802 
7    931.5718750      0.0115760 
8    931.5796875      0.0264600 
9    931.5875000      0.0104090 
10    931.5953125     -0.0244470 
11    931.6031250     -0.0279930 
12    931.6109375     -0.0097396 
13    931.6187500      0.0060029 
14    931.6265625      0.0046292 
15    931.6343750     -0.0028449 
16    931.6421875      0.0035865 
17    931.6500000      0.0003080 
18    931.6578125      0.0004325 
19    931.6656250      0.0023477 
20    931.6734375      0.0115790 
21    931.6812500      0.0079376 
22    931.6890625      0.0067801 
23    931.6968750      0.0041419 
24    931.7046875      0.0027962 
25    931.7125000     -0.0039763 
26    931.7203125     -0.0117140 
27    931.7281250     -0.0041310 
28    931.7359375     -0.0003608 
29    931.7437500      0.0060853 
30    931.7515625      0.0068597 
31    931.7593750      0.0033686 
32    931.7671875     -0.0064712 
33    931.7750000     -0.0079297 
34    931.7828125     -0.0089191 
35    931.7906250     -0.0017754 
36    931.7984375      0.0059506 
37    931.8062500     -0.0009371 
38    931.8140625      0.0002573 
39    931.8218750      0.0012406 
40    931.8296875      0.0046383 
41    931.8375000      0.0050054 
42    931.8453125     -0.0028992 
43    931.8531250     -0.0158880 
44    931.8609375     -0.0393210 
45    931.8687500     -0.0488750 
46    931.8765625     -0.0326700 
47    931.8843750     -0.0249640 
48    931.8921875     -0.0234490 
49    931.9000000     -0.0169330 
50    931.9078125     -0.0061859 
51    931.9156250     -0.0062455 
52    931.9234375     -0.0032860 
53    931.9312500     -0.0063966 
54    931.9390625     -0.0059292 
55    931.9468750     -0.0068316 
56    931.9546875     -0.0027732 
57    931.9625000      0.0008203 
58    931.9703125     -0.0068487 
59    931.9781250     -0.0043839 
60    931.9859375     -0.0015681 
61    931.9937500     -0.0053626 
62    932.0015625     -0.0001177 
63    932.0093750      0.0036881 
64    932.0171875     -0.0000085 
65    932.0250000     -0.0089788 
66    932.0328125     -0.0140500 
67    932.0406250     -0.0506360 
68    932.0484375     -0.1267200 
69    932.0562500     -0.2129600 
70    932.0640625     -0.2534600 
71    932.0718750     -0.2912300 
72    932.0796875     -0.3509300 
73    932.0875000     -0.3544800 
74    932.0953125     -0.2849900 
75    932.1031250     -0.2528800 
76    932.1109375     -0.2488600 
77    932.1187500     -0.1837300 
78    932.1265625     -0.0992990 
79    932.1343750     -0.0498740 
80    932.1421875     -0.0320490 
81    932.1500000     -0.0344750 
82    932.1578125     -0.0334960 
83    932.1656250     -0.0437880 
84    932.1734375     -0.0771720 
85    932.1812500     -0.1618500 
86    932.1890625     -0.2351500 
87    932.1968750     -0.1868600 
88    932.2046875     -0.0699910 
89    932.2125000     -0.0093342 
90    932.2203125     -0.0049155 
91    932.2281250     -0.0058306 
92    932.2359375     -0.0049354 
93    932.2437500      0.0067189 
94    932.2515625      0.0159700 
95    932.2593750      0.0115380 
96    932.2671875      0.0059783 
97    932.2750000      0.0061673 
98    932.2828125     -0.0029364 
99    932.2906250     -0.0099924 
100    932.2984375     -0.0143480 
101    932.3062500     -0.0072885 
102    932.3140625      0.0028763 
103    932.3218750     -0.0031990 
104    932.3296875     -0.0058238 
105    932.3375000     -0.0032493 
106    932.3453125      0.0048326 
107    932.3531250      0.0040230 
108    932.3609375     -0.0067939 
109    932.3687500     -0.0083716 
110    932.3765625     -0.0052269 
111    932.3843750      0.0009055 
112    932.3921875      0.0118660 
113    932.4000000      0.0082799 
114    932.4078125      0.0004824 
115    932.4156250      0.0016852 
116    932.4234375      0.0084401 
117    932.4312500      0.0064917 
118    932.4390625      0.0001905 
119    932.4468750     -0.0022261 
120    932.4546875      0.0050847 
121    932.4625000      0.0074350 
122    932.4703125     -0.0064131 
123    932.4781250     -0.0156270 
