#
# GMRT HI spectrum towards OI363 (z = 0.2212) on 19th October 2000
#
# Total Bandwidth is 1.0 MHz 128 Channels
# First channel is at 1162.5 MHz (1st LO 1090 MHz BB LO 72.5 MHz)
#
# Flux and bandpass calibration done using 3C147 and 3C286.
# Phase calibration was unnecessary as OI363 is unresolved by
# the GMRT beam.
#
# The flux of OI363 was measured to be 2.245 \pm 0.021 Jy
#
# Frequency increases with channel number.
# Spectrum obtained from POSSM on the SPLIT file, using DOBAND = 3
#
# Total on source time approximately 270 minutes with around 16 antennas.
# Channel 7 was used for calibration.
# RMS noise = 2.0 mJy
# The OI363 flux of 2.259 Jy has been subtracted from the spectrum
# in oi363_P.spc
# The second channel gives the Heliocentric frequency in MHz. This 
# was obtained using dopset and subtracting 0.115 MHz from chan 1 and so 
# on.
#
# This is NOT accurate since the doppler shift is substantial across the 
# observations
#
 1  1162.385	0.0
 2  1162.39281	0.00466
 3  1162.40062	0.00423
 4  1162.40844	0.00169
 5  1162.41625	0.00135
 6  1162.42406	0.00017
 7  1162.43187	-0.00826
 8  1162.43969	0.00148
 9  1162.4475	-0.00119
 10  1162.45531	-0.00067
 11  1162.46312	-0.00058
 12  1162.47094	-0.00422
 13  1162.47875	0.00044
 14  1162.48656	-0.0026
 15  1162.49437	-0.00145
 16  1162.50219	0.00039
 17  1162.51	0.00119
 18  1162.51781	0.00023
 19  1162.52562	-0.00292
 20  1162.53344	-0.00148
 21  1162.54125	0.00228
 22  1162.54906	-0.00209
 23  1162.55687	-0.00118
 24  1162.56469	-0.00501
 25  1162.5725	0.00193
 26  1162.58031	-0.00051
 27  1162.58812	0.00264
 28  1162.59594	-0.00083
 29  1162.60375	-0.00095
 30  1162.61156	0.002
 31  1162.61937	0.0024
 32  1162.62719	-0.00059
 33  1162.635	0.00183
 34  1162.64281	-0.00145
 35  1162.65062	0.00198
 36  1162.65844	-0.00327
 37  1162.66625	-0.00024
 38  1162.67406	-0.00102
 39  1162.68187	-0.0022
 40  1162.68969	0.00054
 41  1162.6975	0.00068
 42  1162.70531	0.00178
 43  1162.71312	0.00191
 44  1162.72094	0.00038
 45  1162.72875	-0.00016
 46  1162.73656	0.00079
 47  1162.74437	0.00292
 48  1162.75219	-0.00032
 49  1162.76	8e-05
 50  1162.76781	-0.00128
 51  1162.77562	5e-05
 52  1162.78344	0.00237
 53  1162.79125	-0.00317
 54  1162.79906	-0.00216
 55  1162.80687	0.00426
 56  1162.81469	-0.00219
 57  1162.8225	-0.00351
 58  1162.83031	0.00356
 59  1162.83812	0.0024
 60  1162.84594	-0.00125
 61  1162.85375	-0.00012
 62  1162.86156	0.00061
 63  1162.86937	0.00135
 64  1162.87719	-0.00187
 65  1162.885	-0.0012
 66  1162.89281	0.00127
 67  1162.90062	-0.00074
 68  1162.90844	0.00364
 69  1162.91625	-0.00016
 70  1162.92406	-0.00155
 71  1162.93187	0.00312
 72  1162.93969	0.00431
 73  1162.9475	0.00117
 74  1162.95531	0.00248
 75  1162.96312	0.00213
 76  1162.97094	0.00367
 77  1162.97875	0.00474
 78  1162.98656	0.00311
 79  1162.99437	0.00042
 80  1163.00219	0.00102
 81  1163.01	0.00116
 82  1163.01781	-4e-05
 83  1163.02562	-0.00387
 84  1163.03344	-0.00474
 85  1163.04125	0.00093
 86  1163.04906	-0.00515
 87  1163.05687	-0.02795
 88  1163.06469	-0.10703
 89  1163.0725	-0.1822
 90  1163.08031	-0.12363
 91  1163.08812	-0.04071
 92  1163.09594	-0.01233
 93  1163.10375	-0.00942
 94  1163.11156	-0.00796
 95  1163.11937	-0.00751
 96  1163.12719	-0.00116
 97  1163.135	-0.00234
 98  1163.14281	-0.00354
 99  1163.15062	-0.00334
 100  1163.15844	-0.00145
 101  1163.16625	-0.0004
 102  1163.17406	-0.00262
 103  1163.18187	-0.0041
 104  1163.18969	-0.00144
 105  1163.1975	-0.00231
 106  1163.20531	-0.00057
 107  1163.21312	-0.00491
 108  1163.22094	0.00432
 109  1163.22875	-0.00204
 110  1163.23656	0.00058
 111  1163.24437	-0.00208
 112  1163.25219	-0.00469
 113  1163.26	-0.00559
 114  1163.26781	0.00058
 115  1163.27562	-0.00395
 116  1163.28344	-0.00447
 117  1163.29125	0.00018
 118  1163.29906	-0.00617
 119  1163.30687	-0.00031
 120  1163.31469	-0.00403
 121  1163.3225	-0.00421
 122  1163.33031	-0.00732
 123  1163.33812	-0.00373
 124  1163.34594	-0.00099
 125  1163.35375	0.00292
 126  1163.36156	-0.00098
 127  1163.36937	-1e-05
 128  1163.37719	0.0
